* Measurement data measured by REW V5.20.13
* Source: ASIO MOTU Audio, Mic/Line 1
* Format: 256k Log Swept Sine, 1 sweep at -8.0 dBFS with no timing reference
* Dated: Jun 4, 2023 8:48:20 PM
* REW Settings:
*  C-weighting compensation: Off
*  Target level: 75.0 dB
* Note: 
* Measurement: Jun 4
* Smoothing: 1/12 octave
* Frequency Step: 1/48 octave
* Start Frequency: 20.000 Hz
*
* Freq(Hz)	SPL(dB)	Phase(degrees)
20.000000	87.381	15.6914
20.299999	87.387	15.2172
20.600000	87.392	14.7635
20.900000	87.397	14.3258
21.200001	87.403	13.8988
21.400000	87.406	13.6182
21.799999	87.413	13.0662
22.000000	87.416	12.7949
22.400000	87.423	12.2621
22.700001	87.427	11.8713
23.000000	87.432	11.4863
23.299999	87.436	11.1058
23.600000	87.441	10.7289
24.000000	87.446	10.2327
24.299999	87.450	9.8669
24.700001	87.454	9.3904
25.000000	87.457	9.0420
25.400000	87.461	8.5883
25.799999	87.465	8.1440
26.200001	87.469	7.7073
26.500000	87.472	7.3848
26.900000	87.475	6.9625
27.200001	87.477	6.6526
27.600000	87.479	6.2487
28.000000	87.481	5.8546
28.500000	87.482	5.3733
29.000000	87.482	4.9031
29.500000	87.481	4.4438
30.000000	87.479	3.9956
30.400000	87.476	3.6439
30.700001	87.473	3.3836
31.100000	87.469	3.0403
31.500000	87.465	2.7010
32.000000	87.459	2.2822
32.500000	87.451	1.8690
33.000000	87.444	1.4611
33.500000	87.435	1.0580
34.000000	87.426	0.6600
34.500000	87.417	0.2690
35.000000	87.406	-0.1129
35.500000	87.395	-0.4828
36.000000	87.384	-0.8386
36.500000	87.373	-1.1779
37.000000	87.362	-1.4983
37.500000	87.352	-1.7985
38.200001	87.342	-2.1882
38.700001	87.339	-2.4556
39.500000	87.344	-2.9052
40.000000	87.349	-3.2214
40.599998	87.355	-3.6434
41.200001	87.355	-4.0972
41.799999	87.349	-4.5590
42.500000	87.335	-5.0844
43.099998	87.321	-5.5164
43.700001	87.305	-5.9326
44.400002	87.286	-6.3998
45.000000	87.269	-6.7856
45.500000	87.254	-7.0986
46.200001	87.235	-7.5269
46.799999	87.218	-7.8864
47.500000	87.198	-8.2972
48.200001	87.177	-8.6989
48.700001	87.163	-8.9808
49.400002	87.142	-9.3698
50.000000	87.124	-9.6974
50.799999	87.100	-10.1270
51.500000	87.079	-10.4981
52.200001	87.058	-10.8657
53.000000	87.034	-11.2803
53.799999	87.008	-11.6868
54.500000	86.985	-12.0352
55.200001	86.962	-12.3766
56.000000	86.936	-12.7584
57.000000	86.903	-13.2247
58.000000	86.869	-13.6823
59.000000	86.836	-14.1342
60.000000	86.803	-14.5819
60.799999	86.776	-14.9368
61.500000	86.753	-15.2442
62.200001	86.729	-15.5482
63.000000	86.702	-15.8912
64.000000	86.668	-16.3135
65.000000	86.634	-16.7290
66.000000	86.598	-17.1368
67.000000	86.562	-17.5365
68.000000	86.525	-17.9289
69.000000	86.488	-18.3140
70.000000	86.450	-18.6920
71.000000	86.413	-19.0648
72.000000	86.375	-19.4323
73.000000	86.337	-19.7913
74.000000	86.298	-20.1396
75.000000	86.259	-20.4768
76.199997	86.210	-20.8689
77.500000	86.156	-21.2827
78.800003	86.101	-21.6882
80.000000	86.049	-22.0544
81.199997	85.997	-22.4114
82.500000	85.941	-22.7905
83.800003	85.886	-23.1649
85.000000	85.835	-23.5078
86.199997	85.783	-23.8491
87.500000	85.724	-24.2156
88.500000	85.677	-24.4931
90.000000	85.603	-24.8979
91.199997	85.541	-25.2092
92.500000	85.471	-25.5305
93.800003	85.399	-25.8311
95.000000	85.330	-26.0858
96.199997	85.258	-26.3135
97.500000	85.177	-26.5214
98.800003	85.093	-26.6775
100.000000	85.014	-26.7656
101.500000	84.915	-26.7881
103.000000	84.819	-26.7032
104.400002	84.735	-26.5226
106.000000	84.651	-26.1918
107.500000	84.589	-25.7463
109.000000	84.556	-25.1580
110.599998	84.575	-24.4325
112.000000	84.654	-23.8729
113.800003	84.828	-23.6122
115.000000	84.958	-23.8828
117.199997	85.136	-25.2287
118.000000	85.167	-25.8755
120.599998	85.150	-27.9634
122.000000	85.090	-28.9076
124.099998	84.973	-30.0317
125.000000	84.919	-30.4225
126.500000	84.829	-30.9815
128.000000	84.741	-31.4526
131.500000	84.545	-32.3325
132.000000	84.518	-32.4409
134.000000	84.414	-32.8433
136.000000	84.314	-33.2042
138.000000	84.217	-33.5327
140.000000	84.123	-33.8361
143.000000	83.985	-34.2548
145.000000	83.896	-34.5131
147.500000	83.788	-34.8146
150.000000	83.681	-35.0960
152.500000	83.576	-35.3612
155.000000	83.473	-35.6119
157.500000	83.372	-35.8482
160.000000	83.271	-36.0697
162.500000	83.172	-36.2770
165.000000	83.074	-36.4714
167.500000	82.977	-36.6541
170.000000	82.881	-36.8257
172.500000	82.785	-36.9863
175.000000	82.691	-37.1364
177.500000	82.598	-37.2765
180.000000	82.505	-37.4075
182.500000	82.413	-37.5289
185.000000	82.322	-37.6409
187.500000	82.231	-37.7435
190.000000	82.141	-37.8364
192.500000	82.052	-37.9192
195.000000	81.963	-37.9922
197.500000	81.876	-38.0558
200.000000	81.788	-38.1104
203.000000	81.685	-38.1642
206.000000	81.582	-38.2063
209.000000	81.480	-38.2380
212.000000	81.379	-38.2599
214.000000	81.312	-38.2691
218.000000	81.180	-38.2731
220.000000	81.114	-38.2678
224.000000	80.984	-38.2413
227.000000	80.887	-38.2073
230.000000	80.791	-38.1602
233.000000	80.695	-38.0982
236.000000	80.599	-38.0196
240.000000	80.474	-37.8865
243.000000	80.381	-37.7649
247.000000	80.259	-37.5731
250.000000	80.170	-37.4062
254.000000	80.057	-37.1541
258.000000	79.951	-36.8748
262.000000	79.853	-36.5828
265.000000	79.786	-36.3663
269.000000	79.702	-36.0961
272.000000	79.644	-35.9144
276.000000	79.568	-35.7050
280.000000	79.493	-35.5291
285.000000	79.396	-35.3369
290.000000	79.295	-35.1464
295.000000	79.191	-34.9315
300.000000	79.087	-34.6826
304.000000	79.006	-34.4622
307.000000	78.948	-34.2874
311.000000	78.873	-34.0472
315.000000	78.804	-33.8066
320.000000	78.724	-33.5234
325.000000	78.650	-33.2820
330.000000	78.578	-33.0934
335.000000	78.502	-32.9503
340.000000	78.421	-32.8323
345.000000	78.332	-32.7169
350.000000	78.239	-32.5861
355.000000	78.141	-32.4283
360.000000	78.042	-32.2381
365.000000	77.943	-32.0154
370.000000	77.845	-31.7631
375.000000	77.747	-31.4863
382.000000	77.613	-31.0656
387.000000	77.519	-30.7442
395.000000	77.372	-30.1965
400.000000	77.283	-29.8347
406.000000	77.180	-29.3822
412.000000	77.079	-28.9113
418.000000	76.981	-28.4231
425.000000	76.870	-27.8314
431.000000	76.779	-27.3047
437.000000	76.692	-26.7614
444.000000	76.595	-26.1104
450.000000	76.517	-25.5425
455.000000	76.456	-25.0668
462.000000	76.377	-24.4047
468.000000	76.313	-23.8481
475.000000	76.243	-23.2162
482.000000	76.175	-22.6033
487.000000	76.126	-22.1741
494.000000	76.059	-21.5787
500.000000	76.000	-21.0673
508.000000	75.923	-20.3761
515.000000	75.856	-19.7589
522.000000	75.790	-19.1291
530.000000	75.718	-18.3953
538.000000	75.648	-17.6476
545.000000	75.590	-16.9832
552.000000	75.535	-16.3098
560.000000	75.476	-15.5305
570.000000	75.408	-14.5446
580.000000	75.345	-13.5490
590.000000	75.289	-12.5461
600.000000	75.238	-11.5373
608.000000	75.202	-10.7262
615.000000	75.174	-10.0146
622.000000	75.148	-9.3033
630.000000	75.121	-8.4919
640.000000	75.093	-7.4797
650.000000	75.071	-6.4683
660.000000	75.053	-5.4584
670.000000	75.041	-4.4543
680.000000	75.033	-3.4592
690.000000	75.032	-2.4729
700.000000	75.036	-1.4946
710.000000	75.045	-0.5264
720.000000	75.060	0.4288
730.000000	75.079	1.3700
740.000000	75.103	2.2988
750.000000	75.132	3.2159
762.000000	75.172	4.2981
775.000000	75.221	5.4426
788.000000	75.278	6.5554
800.000000	75.336	7.5522
812.000000	75.400	8.5165
825.000000	75.476	9.5226
838.000000	75.558	10.4876
850.000000	75.638	11.3407
862.000000	75.723	12.1551
875.000000	75.820	12.9911
885.000000	75.897	13.6019
900.000000	76.018	14.4667
912.000000	76.117	15.1124
925.000000	76.227	15.7621
938.000000	76.339	16.3574
950.000000	76.444	16.8571
962.000000	76.550	17.3098
975.000000	76.665	17.7504
988.000000	76.780	18.1400
1000.000000	76.885	18.4537
1015.000000	77.015	18.7833
1030.000000	77.141	19.0457
1044.000000	77.256	19.2343
1060.000000	77.381	19.3887
1075.000000	77.494	19.4783
1090.000000	77.601	19.5176
1106.000000	77.708	19.5089
1120.000000	77.796	19.4643
1138.000000	77.901	19.3687
1150.000000	77.965	19.2864
1172.000000	78.069	19.1041
1180.000000	78.103	19.0300
1206.000000	78.200	18.7766
1220.000000	78.244	18.6416
1241.000000	78.301	18.4519
1250.000000	78.322	18.3760
1265.000000	78.356	18.2549
1280.000000	78.385	18.1362
1315.000000	78.440	17.8499
1320.000000	78.445	17.8083
1340.000000	78.461	17.6509
1360.000000	78.465	17.5258
1380.000000	78.461	17.4502
1400.000000	78.452	17.4244
1430.000000	78.432	17.4508
1450.000000	78.411	17.5059
1475.000000	78.375	17.6478
1500.000000	78.332	17.9102
1525.000000	78.292	18.2943
1550.000000	78.257	18.7637
1575.000000	78.228	19.2886
1600.000000	78.201	19.8635
1625.000000	78.175	20.4954
1650.000000	78.151	21.1953
1675.000000	78.129	21.9819
1700.000000	78.112	22.8829
1725.000000	78.107	23.9162
1750.000000	78.125	25.0609
1775.000000	78.172	26.2524
1800.000000	78.251	27.4078
1825.000000	78.353	28.4561
1850.000000	78.468	29.3654
1875.000000	78.584	30.1515
1900.000000	78.696	30.8578
1925.000000	78.805	31.5257
1950.000000	78.912	32.1795
1975.000000	79.021	32.8271
2000.000000	79.134	33.4668
2030.000000	79.275	34.2152
2060.000000	79.423	34.9324
2090.000000	79.578	35.6133
2120.000000	79.737	36.2555
2140.000000	79.845	36.6603
2180.000000	80.066	37.4137
2200.000000	80.179	37.7650
2240.000000	80.408	38.4315
2270.000000	80.584	38.9189
2300.000000	80.766	39.4154
2330.000000	80.959	39.9279
2360.000000	81.173	40.4393
2400.000000	81.498	41.0197
2430.000000	81.772	41.2591
2470.000000	82.151	41.1613
2500.000000	82.425	40.7553
2540.000000	82.753	39.8749
2580.000000	83.033	38.7768
2620.000000	83.273	37.5940
2650.000000	83.433	36.6862
2690.000000	83.626	35.4525
2720.000000	83.758	34.5002
2760.000000	83.918	33.1767
2800.000000	84.057	31.7844
2850.000000	84.195	29.9773
2900.000000	84.294	28.1629
2950.000000	84.358	26.3912
3000.000000	84.391	24.6771
3040.000000	84.394	23.3632
3070.000000	84.384	22.4283
3110.000000	84.355	21.2727
3150.000000	84.311	20.2396
3200.000000	84.243	19.1307
3250.000000	84.166	18.2144
3300.000000	84.085	17.4749
3350.000000	84.003	16.9062
3400.000000	83.924	16.5052
3450.000000	83.853	16.2547
3500.000000	83.796	16.1226
3550.000000	83.754	16.0723
3600.000000	83.728	16.0675
3650.000000	83.719	16.0702
3700.000000	83.722	16.0482
3750.000000	83.733	15.9831
3820.000000	83.753	15.8118
3870.000000	83.765	15.6462
3950.000000	83.768	15.3964
4000.000000	83.764	15.3323
4060.000000	83.765	15.4283
4120.000000	83.798	15.7104
4180.000000	83.887	16.0505
4250.000000	84.071	16.2147
4310.000000	84.273	15.9066
4370.000000	84.478	15.0771
4440.000000	84.677	13.5133
4500.000000	84.788	11.8260
4550.000000	84.833	10.3120
4620.000000	84.830	8.2151
4680.000000	84.782	6.5519
4750.000000	84.691	4.8136
4820.000000	84.580	3.2673
4870.000000	84.493	2.2548
4940.000000	84.368	0.9335
5000.000000	84.260	-0.1402
5080.000000	84.118	-1.5531
5150.000000	83.994	-2.8423
5220.000000	83.862	-4.2341
5300.000000	83.686	-5.9604
5380.000000	83.466	-7.7681
5450.000000	83.226	-9.3179
5520.000000	82.941	-10.7333
5600.000000	82.566	-12.0661
5700.000000	82.038	-13.1440
5800.000000	81.476	-13.4395
5900.000000	80.922	-12.9000
6000.000000	80.426	-11.5947
6080.000000	80.104	-10.1507
6150.000000	79.893	-8.7526
6220.000000	79.747	-7.3732
6300.000000	79.650	-5.9676
6400.000000	79.600	-4.5969
6500.000000	79.591	-3.6547
6600.000000	79.599	-3.0500
6700.000000	79.619	-2.7009
6800.000000	79.653	-2.5771
6900.000000	79.700	-2.6937
7000.000000	79.759	-3.0850
7100.000000	79.821	-3.7858
7200.000000	79.876	-4.8134
7300.000000	79.913	-6.1582
7400.000000	79.919	-7.7819
7500.000000	79.887	-9.6198
7620.000000	79.790	-11.9908
7750.000000	79.614	-14.6104
7880.000000	79.376	-17.1575
8000.000000	79.113	-19.3885
8120.000000	78.817	-21.4874
8250.000000	78.471	-23.6179
8380.000000	78.108	-25.6356
8500.000000	77.763	-27.4626
8620.000000	77.409	-29.3369
8750.000000	77.008	-31.5154
8850.000000	76.673	-33.3325
9000.000000	76.095	-36.2206
9120.000000	75.546	-38.4934
9250.000000	74.854	-40.6721
9380.000000	74.066	-42.3349
9500.000000	73.266	-43.2609
9620.000000	72.414	-43.5131
9750.000000	71.454	-42.9872
9880.000000	70.481	-41.6472
10000.000000	69.592	-39.7393
10150.000000	68.519	-36.5538
10300.000000	67.508	-32.6143
10440.000000	66.636	-28.3813
10600.000000	65.732	-23.0214
10750.000000	64.980	-17.6022
10900.000000	64.322	-11.8843
11060.000000	63.730	-5.5088
11200.000000	63.315	0.2607
11380.000000	62.955	7.7359
11500.000000	62.833	12.5242
11720.000000	62.801	20.4491
11800.000000	62.835	23.0435
12060.000000	63.090	30.4197
12200.000000	63.313	33.5810
12410.000000	63.713	36.9291
12500.000000	63.888	37.7841
12650.000000	64.156	38.4024
12800.000000	64.355	38.0670
13150.000000	64.382	34.7540
13200.000000	64.328	34.1627
13400.000000	63.974	31.9933
13600.000000	63.446	30.5459
13800.000000	62.822	30.0575
14000.000000	62.183	30.4393
14300.000000	61.326	32.0383
14500.000000	60.875	33.3034
14750.000000	60.462	34.5299
15000.000000	60.196	34.8591
15250.000000	60.042	33.7362
15500.000000	59.907	30.3851
15750.000000	59.605	24.5688
16000.000000	58.962	17.0639
16250.000000	57.846	9.6090
16500.000000	56.223	4.4157
16750.000000	54.205	2.6690
17000.000000	51.989	4.0125
17250.000000	49.733	7.5753
17500.000000	47.512	12.8143
17750.000000	45.348	19.5117
18000.000000	43.248	27.5658
18250.000000	41.224	36.8969
18500.000000	39.302	47.3596
18750.000000	37.517	58.6826
19000.000000	35.902	70.4654
19250.000000	34.478	82.1259
19500.000000	33.270	92.8549
19750.000000	32.333	101.4879
