* Measurement data measured by REW V5.20.13
* Source: ASIO MOTU Audio, Mic/Line 1
* Format: 256k Log Swept Sine, 1 sweep at -8.0 dBFS with no timing reference
* Dated: Jun 4, 2023 8:51:18 PM
* REW Settings:
*  C-weighting compensation: Off
*  Target level: 75.0 dB
* Note: 
* Measurement: Jun 4
* Smoothing: 1/12 octave
* Frequency Step: 1/48 octave
* Start Frequency: 20.000 Hz
*
* Freq(Hz)	SPL(dB)	Phase(degrees)
20.000000	89.506	34.3704
20.299999	89.524	33.7869
20.600000	89.542	33.2146
20.900000	89.559	32.6535
21.200001	89.577	32.1037
21.400000	89.588	31.7437
21.799999	89.612	31.0400
22.000000	89.623	30.6966
22.400000	89.646	30.0272
22.700001	89.664	29.5409
23.000000	89.681	29.0680
23.299999	89.698	28.6079
23.600000	89.715	28.1602
24.000000	89.737	27.5815
24.299999	89.753	27.1606
24.700001	89.773	26.6168
25.000000	89.787	26.2217
25.400000	89.804	25.7115
25.799999	89.820	25.2189
26.200001	89.834	24.7412
26.500000	89.844	24.3909
26.900000	89.857	23.9327
27.200001	89.866	23.5947
27.600000	89.877	23.1506
28.000000	89.886	22.7138
28.500000	89.898	22.1778
29.000000	89.908	21.6533
29.500000	89.918	21.1406
30.000000	89.927	20.6395
30.400000	89.934	20.2476
30.700001	89.939	19.9597
31.100000	89.945	19.5863
31.500000	89.951	19.2274
32.000000	89.957	18.8018
32.500000	89.963	18.4036
33.000000	89.970	18.0350
33.500000	89.977	17.7003
34.000000	89.988	17.3989
34.500000	90.004	17.1158
35.000000	90.027	16.8224
35.500000	90.054	16.4893
36.000000	90.080	16.1079
36.500000	90.101	15.6944
37.000000	90.115	15.2761
37.500000	90.125	14.8710
38.200001	90.136	14.3312
38.700001	90.142	13.9592
39.500000	90.150	13.3839
40.000000	90.155	13.0388
40.599998	90.159	12.6398
41.200001	90.162	12.2567
41.799999	90.164	11.8901
42.500000	90.166	11.4843
43.099998	90.166	11.1542
43.700001	90.166	10.8392
44.400002	90.166	10.4897
45.000000	90.166	10.2043
45.500000	90.165	9.9760
46.200001	90.164	9.6736
46.799999	90.163	9.4336
47.500000	90.165	9.1755
48.200001	90.170	8.9332
48.700001	90.177	8.7642
49.400002	90.189	8.5271
50.000000	90.203	8.3192
50.799999	90.226	8.0214
51.500000	90.250	7.7224
52.200001	90.273	7.3755
53.000000	90.293	6.9323
53.799999	90.303	6.4755
54.500000	90.305	6.0936
55.200001	90.303	5.7397
56.000000	90.299	5.3671
57.000000	90.293	4.9364
58.000000	90.287	4.5331
59.000000	90.282	4.1494
60.000000	90.278	3.7787
60.799999	90.274	3.4891
61.500000	90.272	3.2405
62.200001	90.269	2.9957
63.000000	90.267	2.7206
64.000000	90.264	2.3841
65.000000	90.260	2.0574
66.000000	90.256	1.7411
67.000000	90.252	1.4336
68.000000	90.248	1.1329
69.000000	90.244	0.8373
70.000000	90.240	0.5446
71.000000	90.236	0.2549
72.000000	90.231	-0.0299
73.000000	90.226	-0.3088
74.000000	90.221	-0.5819
75.000000	90.216	-0.8494
76.199997	90.210	-1.1631
77.500000	90.202	-1.4952
78.800003	90.195	-1.8212
80.000000	90.187	-2.1175
81.199997	90.180	-2.4091
82.500000	90.171	-2.7194
83.800003	90.162	-3.0239
85.000000	90.154	-3.3001
86.199997	90.145	-3.5718
87.500000	90.136	-3.8608
88.500000	90.129	-4.0800
90.000000	90.117	-4.4043
91.199997	90.107	-4.6598
92.500000	90.096	-4.9319
93.800003	90.085	-5.1984
95.000000	90.074	-5.4395
96.199997	90.063	-5.6762
97.500000	90.050	-5.9281
98.800003	90.037	-6.1754
100.000000	90.024	-6.3994
101.500000	90.007	-6.6720
103.000000	89.989	-6.9344
104.400002	89.971	-7.1676
106.000000	89.950	-7.4174
107.500000	89.929	-7.6321
109.000000	89.907	-7.8246
110.599998	89.884	-8.0000
112.000000	89.866	-8.1249
113.800003	89.847	-8.2500
115.000000	89.839	-8.3198
117.199997	89.836	-8.4556
118.000000	89.838	-8.5172
120.599998	89.847	-8.7905
122.000000	89.851	-8.9814
124.099998	89.848	-9.2899
125.000000	89.843	-9.4165
126.500000	89.832	-9.6028
128.000000	89.819	-9.7456
131.500000	89.805	-9.8945
132.000000	89.807	-9.9006
134.000000	89.828	-9.9281
136.000000	89.872	-10.0347
138.000000	89.929	-10.3118
140.000000	89.981	-10.7878
143.000000	90.018	-11.7316
145.000000	90.014	-12.3727
147.500000	89.986	-13.0863
150.000000	89.948	-13.6882
152.500000	89.907	-14.2018
155.000000	89.867	-14.6522
157.500000	89.829	-15.0573
160.000000	89.793	-15.4299
162.500000	89.758	-15.7791
165.000000	89.725	-16.1102
167.500000	89.693	-16.4268
170.000000	89.662	-16.7321
172.500000	89.632	-17.0293
175.000000	89.604	-17.3230
177.500000	89.576	-17.6168
180.000000	89.548	-17.9114
182.500000	89.520	-18.2053
185.000000	89.492	-18.4964
187.500000	89.463	-18.7827
190.000000	89.434	-19.0637
192.500000	89.405	-19.3397
195.000000	89.376	-19.6110
197.500000	89.347	-19.8773
200.000000	89.318	-20.1385
203.000000	89.283	-20.4454
206.000000	89.248	-20.7460
209.000000	89.213	-21.0405
212.000000	89.178	-21.3296
214.000000	89.154	-21.5195
218.000000	89.107	-21.8936
220.000000	89.084	-22.0782
224.000000	89.037	-22.4424
227.000000	89.001	-22.7112
230.000000	88.966	-22.9767
233.000000	88.930	-23.2390
236.000000	88.894	-23.4975
240.000000	88.846	-23.8348
243.000000	88.809	-24.0819
247.000000	88.761	-24.4027
250.000000	88.724	-24.6368
254.000000	88.674	-24.9406
258.000000	88.624	-25.2360
262.000000	88.574	-25.5244
265.000000	88.537	-25.7366
269.000000	88.487	-26.0138
272.000000	88.450	-26.2170
276.000000	88.400	-26.4818
280.000000	88.349	-26.7392
285.000000	88.285	-27.0510
290.000000	88.220	-27.3514
295.000000	88.154	-27.6385
300.000000	88.088	-27.9098
304.000000	88.035	-28.1143
307.000000	87.995	-28.2608
311.000000	87.941	-28.4471
315.000000	87.887	-28.6218
320.000000	87.819	-28.8194
325.000000	87.750	-28.9904
330.000000	87.682	-29.1329
335.000000	87.614	-29.2441
340.000000	87.549	-29.3184
345.000000	87.486	-29.3489
350.000000	87.430	-29.3313
355.000000	87.383	-29.2698
360.000000	87.349	-29.1840
365.000000	87.333	-29.1147
370.000000	87.332	-29.1158
375.000000	87.341	-29.2357
382.000000	87.351	-29.6307
387.000000	87.345	-30.0391
395.000000	87.302	-30.7712
400.000000	87.257	-31.2109
406.000000	87.191	-31.6826
412.000000	87.118	-32.0861
418.000000	87.042	-32.4274
425.000000	86.952	-32.7621
431.000000	86.876	-33.0073
437.000000	86.802	-33.2231
444.000000	86.717	-33.4454
450.000000	86.647	-33.6163
455.000000	86.589	-33.7480
462.000000	86.511	-33.9204
468.000000	86.445	-34.0591
475.000000	86.369	-34.2126
482.000000	86.294	-34.3583
487.000000	86.241	-34.4573
494.000000	86.166	-34.5870
500.000000	86.102	-34.6890
508.000000	86.018	-34.8112
515.000000	85.944	-34.9056
522.000000	85.871	-34.9885
530.000000	85.790	-35.0692
538.000000	85.709	-35.1357
545.000000	85.639	-35.1829
552.000000	85.570	-35.2201
560.000000	85.492	-35.2505
570.000000	85.397	-35.2720
580.000000	85.303	-35.2761
590.000000	85.211	-35.2629
600.000000	85.121	-35.2324
608.000000	85.050	-35.1954
615.000000	84.989	-35.1547
622.000000	84.929	-35.1067
630.000000	84.861	-35.0435
640.000000	84.779	-34.9518
650.000000	84.698	-34.8459
660.000000	84.619	-34.7250
670.000000	84.542	-34.5891
680.000000	84.468	-34.4397
690.000000	84.395	-34.2775
700.000000	84.325	-34.1031
710.000000	84.257	-33.9171
720.000000	84.190	-33.7190
730.000000	84.127	-33.5089
740.000000	84.065	-33.2871
750.000000	84.006	-33.0546
762.000000	83.938	-32.7628
775.000000	83.870	-32.4325
788.000000	83.805	-32.0876
800.000000	83.749	-31.7571
812.000000	83.698	-31.4168
825.000000	83.646	-31.0397
838.000000	83.600	-30.6556
850.000000	83.561	-30.2963
862.000000	83.526	-29.9336
875.000000	83.493	-29.5381
885.000000	83.471	-29.2332
900.000000	83.442	-28.7771
912.000000	83.424	-28.4152
925.000000	83.408	-28.0279
938.000000	83.396	-27.6471
950.000000	83.389	-27.3027
962.000000	83.385	-26.9663
975.000000	83.384	-26.6124
988.000000	83.387	-26.2706
1000.000000	83.392	-25.9668
1015.000000	83.402	-25.6033
1030.000000	83.415	-25.2584
1044.000000	83.430	-24.9536
1060.000000	83.449	-24.6253
1075.000000	83.470	-24.3361
1090.000000	83.492	-24.0640
1106.000000	83.517	-23.7914
1120.000000	83.540	-23.5668
1138.000000	83.571	-23.2949
1150.000000	83.592	-23.1229
1172.000000	83.631	-22.8229
1180.000000	83.645	-22.7179
1206.000000	83.691	-22.3837
1220.000000	83.715	-22.2026
1241.000000	83.750	-21.9166
1250.000000	83.766	-21.7845
1265.000000	83.792	-21.5449
1280.000000	83.821	-21.2748
1315.000000	83.917	-20.5428
1320.000000	83.936	-20.4366
1340.000000	84.021	-20.0542
1360.000000	84.120	-19.7858
1380.000000	84.219	-19.6405
1400.000000	84.311	-19.5766
1430.000000	84.437	-19.5331
1450.000000	84.518	-19.5093
1475.000000	84.618	-19.4866
1500.000000	84.720	-19.4866
1525.000000	84.821	-19.5179
1550.000000	84.918	-19.5659
1575.000000	85.009	-19.5896
1600.000000	85.101	-19.5414
1625.000000	85.204	-19.4072
1650.000000	85.329	-19.2337
1675.000000	85.480	-19.1085
1700.000000	85.651	-19.1082
1725.000000	85.833	-19.2671
1750.000000	86.019	-19.5883
1775.000000	86.203	-20.0640
1800.000000	86.382	-20.6846
1825.000000	86.552	-21.4390
1850.000000	86.711	-22.3135
1875.000000	86.856	-23.2930
1900.000000	86.986	-24.3616
1925.000000	87.101	-25.5043
1950.000000	87.197	-26.7063
1975.000000	87.276	-27.9517
2000.000000	87.336	-29.2234
2030.000000	87.383	-30.7592
2060.000000	87.403	-32.2758
2090.000000	87.397	-33.7400
2120.000000	87.367	-35.1157
2140.000000	87.335	-35.9650
2180.000000	87.250	-37.4530
2200.000000	87.203	-38.0786
2240.000000	87.116	-39.1121
2270.000000	87.070	-39.7759
2300.000000	87.040	-40.4604
2330.000000	87.017	-41.2504
2360.000000	86.984	-42.1556
2400.000000	86.905	-43.4285
2430.000000	86.820	-44.3316
2470.000000	86.682	-45.3976
2500.000000	86.568	-46.1018
2540.000000	86.400	-46.9398
2580.000000	86.212	-47.6437
2620.000000	86.002	-48.1436
2650.000000	85.836	-48.3447
2690.000000	85.617	-48.3745
2720.000000	85.462	-48.2559
2760.000000	85.275	-48.0100
2800.000000	85.101	-47.7622
2850.000000	84.874	-47.4578
2900.000000	84.616	-46.9825
2950.000000	84.336	-46.1361
3000.000000	84.062	-44.8445
3040.000000	83.861	-43.5117
3070.000000	83.727	-42.3595
3110.000000	83.575	-40.6428
3150.000000	83.457	-38.7421
3200.000000	83.367	-36.1514
3250.000000	83.354	-33.4022
3300.000000	83.422	-30.6063
3350.000000	83.575	-27.8787
3400.000000	83.809	-25.3250
3450.000000	84.119	-23.0492
3500.000000	84.498	-21.1655
3550.000000	84.932	-19.7930
3600.000000	85.398	-19.0400
3650.000000	85.872	-18.9872
3700.000000	86.322	-19.6630
3750.000000	86.721	-21.0291
3820.000000	87.149	-23.9006
3870.000000	87.340	-26.4211
3950.000000	87.430	-30.7261
4000.000000	87.356	-33.2758
4060.000000	87.158	-35.9077
4120.000000	86.873	-37.8972
4180.000000	86.543	-39.1977
4250.000000	86.147	-39.9698
4310.000000	85.826	-40.1797
4370.000000	85.526	-40.1359
4440.000000	85.198	-39.9081
4500.000000	84.926	-39.6312
4550.000000	84.697	-39.3610
4620.000000	84.363	-38.9099
4680.000000	84.051	-38.4058
4750.000000	83.647	-37.5610
4820.000000	83.197	-36.2545
4870.000000	82.851	-34.9192
4940.000000	82.355	-32.3510
5000.000000	81.947	-29.4528
5080.000000	81.485	-24.6795
5150.000000	81.205	-19.8897
5220.000000	81.064	-14.8304
5300.000000	81.065	-9.0534
5380.000000	81.211	-3.5243
5450.000000	81.428	1.0222
5520.000000	81.710	5.2800
5600.000000	82.100	9.7967
5700.000000	82.674	14.9183
5800.000000	83.333	19.4471
5900.000000	84.066	23.3741
6000.000000	84.871	26.6855
6080.000000	85.568	28.8619
6150.000000	86.217	30.3809
6220.000000	86.902	31.4870
6300.000000	87.721	32.1556
6400.000000	88.780	31.9009
6500.000000	89.829	30.1385
6600.000000	90.781	26.5505
6700.000000	91.510	21.0640
6800.000000	91.881	14.4182
6900.000000	91.864	8.5236
7000.000000	91.695	5.0947
7100.000000	91.739	3.3647
7200.000000	92.044	0.9806
7300.000000	92.363	-3.1918
7400.000000	92.510	-8.7010
7500.000000	92.438	-14.6537
7620.000000	92.089	-21.4548
7750.000000	91.456	-27.7465
7880.000000	90.629	-32.5883
8000.000000	89.753	-35.6768
8120.000000	88.824	-37.5042
8250.000000	87.805	-38.2347
8380.000000	86.804	-37.8337
8500.000000	85.916	-36.5712
8620.000000	85.085	-34.5684
8750.000000	84.266	-31.7211
8850.000000	83.703	-29.1545
9000.000000	82.976	-24.8539
9120.000000	82.500	-21.1558
9250.000000	82.094	-17.0333
9380.000000	81.801	-12.9284
9500.000000	81.625	-9.2758
9620.000000	81.536	-5.8612
9750.000000	81.529	-2.5420
9880.000000	81.608	0.2654
10000.000000	81.753	2.2533
10150.000000	82.012	3.5137
10300.000000	82.258	2.8395
10440.000000	82.329	0.4177
10600.000000	82.085	-3.5076
10750.000000	81.507	-6.9461
10900.000000	80.633	-9.0634
11060.000000	79.470	-9.2878
11200.000000	78.347	-7.7240
11380.000000	76.877	-3.6094
11500.000000	75.935	0.2109
11720.000000	74.388	8.8452
11800.000000	73.903	12.3427
12060.000000	72.664	24.2669
12200.000000	72.212	30.7068
12410.000000	71.790	39.9375
12500.000000	71.692	43.6333
12650.000000	71.619	49.3249
12800.000000	71.633	54.3272
13150.000000	71.821	62.8960
13200.000000	71.847	63.7517
13400.000000	71.906	66.3174
13600.000000	71.842	67.7450
13800.000000	71.611	68.5090
14000.000000	71.197	69.2082
14300.000000	70.285	71.3484
14500.000000	69.565	74.0229
14750.000000	68.683	78.9074
15000.000000	68.011	84.9292
15250.000000	67.684	90.5694
15500.000000	67.567	94.2295
15750.000000	67.357	96.0208
16000.000000	66.933	97.3937
16250.000000	66.353	99.3499
16500.000000	65.719	102.1455
16750.000000	65.137	105.5765
17000.000000	64.693	109.0309
17250.000000	64.405	111.7239
17500.000000	64.231	112.9286
17750.000000	64.083	111.9855
18000.000000	63.817	108.5164
18250.000000	63.268	102.9097
18500.000000	62.305	96.4871
18750.000000	60.878	90.9775
19000.000000	59.011	87.7958
19250.000000	56.765	87.7171
19500.000000	54.232	90.6762
19750.000000	51.625	95.2922
