* Measurement data measured by REW V5.20.13
* Source: ASIO MOTU Audio, Mic/Line 1
* Format: 256k Log Swept Sine, 1 sweep at -8.0 dBFS with no timing reference
* Dated: Jun 3, 2023 4:38:30 PM
* REW Settings:
*  C-weighting compensation: Off
*  Target level: 75.0 dB
* Note: 
* Measurement: Jun 3
* Smoothing: 1/12 octave
* Frequency Step: 1/48 octave
* Start Frequency: 20.000 Hz
*
* Freq(Hz)	SPL(dB)	Phase(degrees)
20.000000	88.116	30.4745
20.299999	88.136	29.8975
20.600000	88.155	29.3327
20.900000	88.173	28.7801
21.200001	88.190	28.2400
21.400000	88.201	27.8872
21.799999	88.222	27.1993
22.000000	88.232	26.8642
22.400000	88.251	26.2115
22.700001	88.265	25.7358
23.000000	88.278	25.2699
23.299999	88.292	24.8116
23.600000	88.306	24.3596
24.000000	88.322	23.7656
24.299999	88.334	23.3276
24.700001	88.348	22.7567
25.000000	88.358	22.3401
25.400000	88.371	21.8011
25.799999	88.384	21.2782
26.200001	88.397	20.7650
26.500000	88.407	20.3827
26.900000	88.420	19.8735
27.200001	88.428	19.4922
27.600000	88.438	18.9879
28.000000	88.445	18.4940
28.500000	88.452	17.8999
29.000000	88.457	17.3364
29.500000	88.462	16.8000
30.000000	88.469	16.2819
30.400000	88.476	15.8743
30.700001	88.481	15.5704
31.100000	88.488	15.1664
31.500000	88.495	14.7639
32.000000	88.502	14.2645
32.500000	88.509	13.7719
33.000000	88.514	13.2883
33.500000	88.519	12.8151
34.000000	88.523	12.3522
34.500000	88.526	11.8992
35.000000	88.529	11.4561
35.500000	88.531	11.0234
36.000000	88.532	10.6017
36.500000	88.532	10.1908
37.000000	88.532	9.7891
37.500000	88.532	9.3950
38.200001	88.531	8.8540
38.700001	88.530	8.4755
39.500000	88.527	7.8839
40.000000	88.525	7.5220
40.599998	88.522	7.0941
41.200001	88.519	6.6722
41.799999	88.515	6.2568
42.500000	88.511	5.7808
43.099998	88.507	5.3805
43.700001	88.502	4.9872
44.400002	88.497	4.5366
45.000000	88.492	4.1567
45.500000	88.488	3.8447
46.200001	88.481	3.4143
46.799999	88.475	3.0515
47.500000	88.467	2.6349
48.200001	88.459	2.2250
48.700001	88.453	1.9363
49.400002	88.444	1.5377
50.000000	88.436	1.2017
50.799999	88.425	0.7618
51.500000	88.416	0.3839
52.200001	88.406	0.0125
53.000000	88.394	-0.4041
53.799999	88.382	-0.8126
54.500000	88.371	-1.1641
55.200001	88.360	-1.5100
56.000000	88.347	-1.8986
57.000000	88.330	-2.3748
58.000000	88.312	-2.8414
59.000000	88.294	-3.2991
60.000000	88.276	-3.7480
60.799999	88.261	-4.1010
61.500000	88.247	-4.4054
62.200001	88.234	-4.7056
63.000000	88.218	-5.0436
64.000000	88.198	-5.4587
65.000000	88.178	-5.8661
66.000000	88.157	-6.2657
67.000000	88.136	-6.6575
68.000000	88.114	-7.0420
69.000000	88.092	-7.4199
70.000000	88.070	-7.7913
71.000000	88.048	-8.1564
72.000000	88.025	-8.5151
73.000000	88.002	-8.8672
74.000000	87.979	-9.2135
75.000000	87.956	-9.5538
76.199997	87.927	-9.9545
77.500000	87.896	-10.3793
78.800003	87.865	-10.7949
80.000000	87.835	-11.1715
81.199997	87.806	-11.5411
82.500000	87.773	-11.9337
83.800003	87.740	-12.3182
85.000000	87.710	-12.6660
86.199997	87.679	-13.0069
87.500000	87.646	-13.3689
88.500000	87.620	-13.6422
90.000000	87.581	-14.0445
91.199997	87.549	-14.3601
92.500000	87.515	-14.6957
93.800003	87.480	-15.0248
95.000000	87.449	-15.3229
96.199997	87.416	-15.6157
97.500000	87.382	-15.9271
98.800003	87.347	-16.2324
100.000000	87.314	-16.5090
101.500000	87.273	-16.8477
103.000000	87.232	-17.1787
104.400002	87.194	-17.4811
106.000000	87.150	-17.8192
107.500000	87.109	-18.1290
109.000000	87.067	-18.4322
110.599998	87.023	-18.7484
112.000000	86.984	-19.0193
113.800003	86.935	-19.3597
115.000000	86.901	-19.5818
117.199997	86.840	-19.9790
118.000000	86.818	-20.1202
120.599998	86.745	-20.5682
122.000000	86.706	-20.8025
124.099998	86.648	-21.1451
125.000000	86.622	-21.2888
126.500000	86.580	-21.5237
128.000000	86.538	-21.7536
131.500000	86.441	-22.2705
132.000000	86.427	-22.3423
134.000000	86.371	-22.6239
136.000000	86.315	-22.8973
138.000000	86.260	-23.1630
140.000000	86.204	-23.4208
143.000000	86.121	-23.7935
145.000000	86.066	-24.0327
147.500000	85.997	-24.3216
150.000000	85.929	-24.5994
152.500000	85.861	-24.8666
155.000000	85.792	-25.1236
157.500000	85.724	-25.3708
160.000000	85.657	-25.6086
162.500000	85.589	-25.8373
165.000000	85.523	-26.0569
167.500000	85.456	-26.2676
170.000000	85.390	-26.4695
172.500000	85.324	-26.6633
175.000000	85.258	-26.8489
177.500000	85.193	-27.0266
180.000000	85.128	-27.1965
182.500000	85.063	-27.3589
185.000000	84.999	-27.5139
187.500000	84.935	-27.6617
190.000000	84.872	-27.8026
192.500000	84.809	-27.9371
195.000000	84.746	-28.0652
197.500000	84.683	-28.1871
200.000000	84.621	-28.3027
203.000000	84.547	-28.4331
206.000000	84.474	-28.5551
209.000000	84.401	-28.6688
212.000000	84.329	-28.7747
214.000000	84.281	-28.8411
218.000000	84.186	-28.9636
220.000000	84.139	-29.0199
224.000000	84.046	-29.1230
227.000000	83.977	-29.1924
230.000000	83.908	-29.2552
233.000000	83.840	-29.3118
236.000000	83.772	-29.3619
240.000000	83.683	-29.4192
243.000000	83.616	-29.4550
247.000000	83.529	-29.4936
250.000000	83.464	-29.5161
254.000000	83.378	-29.5380
258.000000	83.293	-29.5508
262.000000	83.209	-29.5547
265.000000	83.147	-29.5519
269.000000	83.065	-29.5405
272.000000	83.004	-29.5268
276.000000	82.924	-29.5017
280.000000	82.844	-29.4692
285.000000	82.746	-29.4186
290.000000	82.649	-29.3568
295.000000	82.554	-29.2837
300.000000	82.460	-29.2003
304.000000	82.386	-29.1266
307.000000	82.331	-29.0674
311.000000	82.258	-28.9833
315.000000	82.187	-28.8934
320.000000	82.098	-28.7732
325.000000	82.011	-28.6446
330.000000	81.925	-28.5079
335.000000	81.841	-28.3634
340.000000	81.758	-28.2111
345.000000	81.676	-28.0518
350.000000	81.595	-27.8859
355.000000	81.515	-27.7137
360.000000	81.437	-27.5349
365.000000	81.360	-27.3497
370.000000	81.284	-27.1587
375.000000	81.209	-26.9617
382.000000	81.107	-26.6764
387.000000	81.035	-26.4659
395.000000	80.922	-26.1182
400.000000	80.852	-25.8942
406.000000	80.771	-25.6193
412.000000	80.690	-25.3380
418.000000	80.612	-25.0503
425.000000	80.522	-24.7073
431.000000	80.446	-24.4071
437.000000	80.372	-24.1008
444.000000	80.287	-23.7354
450.000000	80.216	-23.4157
455.000000	80.157	-23.1453
462.000000	80.078	-22.7612
468.000000	80.010	-22.4269
475.000000	79.934	-22.0311
482.000000	79.859	-21.6293
487.000000	79.807	-21.3384
494.000000	79.735	-20.9261
500.000000	79.674	-20.5681
508.000000	79.596	-20.0843
515.000000	79.529	-19.6548
522.000000	79.463	-19.2200
530.000000	79.391	-18.7170
538.000000	79.320	-18.2079
545.000000	79.260	-17.7572
552.000000	79.201	-17.3014
560.000000	79.136	-16.7744
570.000000	79.058	-16.1073
580.000000	78.983	-15.4314
590.000000	78.911	-14.7467
600.000000	78.842	-14.0535
608.000000	78.789	-13.4933
615.000000	78.744	-12.9991
622.000000	78.701	-12.5013
630.000000	78.653	-11.9279
640.000000	78.597	-11.2049
650.000000	78.544	-10.4752
660.000000	78.493	-9.7391
670.000000	78.446	-8.9966
680.000000	78.402	-8.2479
690.000000	78.362	-7.4937
700.000000	78.324	-6.7344
710.000000	78.290	-5.9707
720.000000	78.259	-5.2024
730.000000	78.231	-4.4297
740.000000	78.207	-3.6532
750.000000	78.186	-2.8734
762.000000	78.165	-1.9338
775.000000	78.148	-0.9127
788.000000	78.137	0.1097
800.000000	78.133	1.0535
812.000000	78.133	1.9962
825.000000	78.140	3.0148
838.000000	78.153	4.0282
850.000000	78.170	4.9575
862.000000	78.192	5.8794
875.000000	78.222	6.8673
885.000000	78.250	7.6180
900.000000	78.297	8.7269
912.000000	78.341	9.5973
925.000000	78.394	10.5214
938.000000	78.452	11.4236
950.000000	78.510	12.2349
962.000000	78.573	13.0239
975.000000	78.646	13.8522
988.000000	78.722	14.6514
1000.000000	78.797	15.3624
1015.000000	78.895	16.2134
1030.000000	78.996	17.0206
1044.000000	79.095	17.7336
1060.000000	79.211	18.5008
1075.000000	79.322	19.1738
1090.000000	79.436	19.8018
1106.000000	79.559	20.4221
1120.000000	79.668	20.9235
1138.000000	79.807	21.5123
1150.000000	79.900	21.8712
1172.000000	80.069	22.4667
1180.000000	80.129	22.6661
1206.000000	80.323	23.2682
1220.000000	80.426	23.5704
1241.000000	80.582	23.9949
1250.000000	80.650	24.1630
1265.000000	80.764	24.4200
1280.000000	80.878	24.6441
1315.000000	81.144	25.0356
1320.000000	81.181	25.0770
1340.000000	81.330	25.2084
1360.000000	81.476	25.2865
1380.000000	81.620	25.3129
1400.000000	81.760	25.2874
1430.000000	81.962	25.1508
1450.000000	82.090	24.9938
1475.000000	82.242	24.7255
1500.000000	82.381	24.3828
1525.000000	82.505	23.9762
1550.000000	82.612	23.5210
1575.000000	82.698	23.0413
1600.000000	82.761	22.5733
1625.000000	82.803	22.1614
1650.000000	82.825	21.8513
1675.000000	82.833	21.6840
1700.000000	82.833	21.6900
1725.000000	82.834	21.8844
1750.000000	82.846	22.2618
1775.000000	82.878	22.7954
1800.000000	82.937	23.4402
1825.000000	83.027	24.1395
1850.000000	83.150	24.8331
1875.000000	83.304	25.4646
1900.000000	83.484	25.9863
1925.000000	83.686	26.3615
1950.000000	83.903	26.5647
1975.000000	84.130	26.5815
2000.000000	84.360	26.4063
2030.000000	84.634	25.9446
2060.000000	84.897	25.2205
2090.000000	85.144	24.2545
2120.000000	85.368	23.0735
2140.000000	85.503	22.1824
2180.000000	85.732	20.1974
2200.000000	85.825	19.1257
2240.000000	85.966	16.8812
2270.000000	86.032	15.1543
2300.000000	86.066	13.4307
2330.000000	86.067	11.7434
2360.000000	86.041	10.1207
2400.000000	85.965	8.0970
2430.000000	85.883	6.7061
2470.000000	85.745	5.0418
2500.000000	85.625	3.9438
2540.000000	85.448	2.6835
2580.000000	85.259	1.6521
2620.000000	85.061	0.8401
2650.000000	84.911	0.3669
2690.000000	84.710	-0.0950
2720.000000	84.561	-0.3235
2760.000000	84.367	-0.4839
2800.000000	84.179	-0.4937
2850.000000	83.956	-0.3167
2900.000000	83.747	0.0458
2950.000000	83.555	0.5696
3000.000000	83.381	1.2332
3040.000000	83.254	1.8516
3070.000000	83.167	2.3607
3110.000000	83.061	3.0933
3150.000000	82.968	3.8802
3200.000000	82.868	4.9298
3250.000000	82.788	6.0414
3300.000000	82.728	7.2037
3350.000000	82.687	8.4065
3400.000000	82.666	9.6395
3450.000000	82.664	10.8928
3500.000000	82.682	12.1586
3550.000000	82.720	13.4308
3600.000000	82.779	14.7025
3650.000000	82.859	15.9630
3700.000000	82.960	17.2005
3750.000000	83.084	18.4047
3820.000000	83.296	20.0146
3870.000000	83.475	21.0944
3950.000000	83.812	22.6616
4000.000000	84.056	23.5153
4060.000000	84.383	24.3795
4120.000000	84.748	25.0309
4180.000000	85.153	25.4201
4250.000000	85.674	25.4619
4310.000000	86.159	25.0604
4370.000000	86.672	24.1631
4440.000000	87.293	22.3566
4500.000000	87.823	20.0383
4550.000000	88.244	17.4934
4620.000000	88.766	12.9326
4680.000000	89.113	8.1182
4750.000000	89.356	1.6233
4820.000000	89.386	-5.4406
4870.000000	89.269	-10.5442
4940.000000	88.917	-17.3489
5000.000000	88.460	-22.5607
5080.000000	87.681	-28.3073
5150.000000	86.894	-32.1212
5220.000000	86.058	-34.8619
5300.000000	85.089	-36.8527
5380.000000	84.145	-37.8470
5450.000000	83.356	-38.0681
5520.000000	82.612	-37.8107
5600.000000	81.819	-37.0550
5700.000000	80.915	-35.5808
5800.000000	80.104	-33.6700
5900.000000	79.379	-31.4429
6000.000000	78.733	-28.9883
6080.000000	78.270	-26.9058
6150.000000	77.900	-25.0203
6220.000000	77.562	-23.0912
6300.000000	77.213	-20.8490
6400.000000	76.829	-18.0121
6500.000000	76.499	-15.1616
6600.000000	76.220	-12.3199
6700.000000	75.990	-9.5065
6800.000000	75.806	-6.7373
6900.000000	75.667	-4.0264
7000.000000	75.570	-1.3856
7100.000000	75.518	1.1687
7200.000000	75.508	3.6051
7300.000000	75.541	5.8827
7400.000000	75.610	7.9696
7500.000000	75.710	9.8485
7620.000000	75.867	11.8112
7750.000000	76.073	13.5511
7880.000000	76.309	14.8621
8000.000000	76.543	15.6735
8120.000000	76.784	16.0885
8250.000000	77.044	16.0800
8380.000000	77.287	15.5994
8500.000000	77.485	14.7648
8620.000000	77.648	13.6058
8750.000000	77.779	12.0624
8850.000000	77.844	10.7294
9000.000000	77.888	8.5881
9120.000000	77.881	6.8135
9250.000000	77.841	4.8618
9380.000000	77.774	2.8712
9500.000000	77.695	0.9581
9620.000000	77.600	-1.0894
9750.000000	77.476	-3.5403
9880.000000	77.316	-6.3094
10000.000000	77.121	-9.1827
10150.000000	76.785	-13.1680
10300.000000	76.313	-17.4226
10440.000000	75.728	-21.3665
10600.000000	74.878	-25.4377
10750.000000	73.916	-28.4663
10900.000000	72.821	-30.4778
11060.000000	71.549	-31.3845
11200.000000	70.386	-31.1449
11380.000000	68.869	-29.5559
11500.000000	67.869	-27.8015
11720.000000	66.098	-23.4115
11800.000000	65.480	-21.5042
12060.000000	63.594	-14.4359
12200.000000	62.658	-10.2007
12410.000000	61.359	-3.4456
12500.000000	60.840	-0.4358
12650.000000	60.020	4.6988
12800.000000	59.257	9.9539
13150.000000	57.675	22.5721
13200.000000	57.471	24.4070
13400.000000	56.715	31.7953
13600.000000	56.053	39.2004
13800.000000	55.484	46.5295
14000.000000	54.996	53.7222
14300.000000	54.397	64.2782
14500.000000	54.086	71.1863
14750.000000	53.803	79.6191
15000.000000	53.639	87.8010
15250.000000	53.611	95.6194
15500.000000	53.705	102.6458
15750.000000	53.830	108.7286
16000.000000	53.944	114.2229
16250.000000	54.057	119.2671
16500.000000	54.149	123.7631
16750.000000	54.168	127.8284
17000.000000	54.096	131.8902
17250.000000	53.981	136.1882
17500.000000	53.853	140.5895
17750.000000	53.708	145.0481
18000.000000	53.552	149.6139
18250.000000	53.404	154.2418
18500.000000	53.278	158.7626
18750.000000	53.168	162.9392
19000.000000	53.045	166.5469
19250.000000	52.872	169.4692
19500.000000	52.627	171.7369
19750.000000	52.349	173.4007
